Time	MABP [mmHg]	CBFV-L [cm/s]	CBFV-R [cm/s]	etCO2 [kPa]	MN					
0.0000	73.6858	62.7307	63.0133	5.2875	2.0000
0.1000	73.5309	62.6725	62.9169	5.2875	2.0000
0.2000	73.3760	62.6143	62.8205	5.2875	2.0000
0.3000	73.2212	62.5561	62.7241	5.2875	2.0000
0.4000	73.0663	62.4979	62.6277	5.2875	2.0000
0.5000	72.9114	62.4398	62.5313	5.2875	2.0000
0.6000	72.7566	62.3816	62.4349	5.2875	2.0000
0.7000	72.6017	62.3234	62.3385	5.2875	2.0000
0.8000	72.7203	62.5461	62.4903	5.2861	2.0000
0.9000	72.8445	62.7746	62.6472	5.2846	2.0000
1.0000	72.9687	63.0031	62.8041	5.2832	2.0000
1.1000	73.0929	63.2315	62.9610	5.2817	2.0000
1.2000	73.2171	63.4600	63.1179	5.2803	2.0000
1.3000	73.3413	63.6885	63.2748	5.2788	2.0000
1.4000	73.4655	63.9170	63.4317	5.2774	2.0000
1.5000	73.5897	64.1454	63.5886	5.2759	2.0000
1.6000	73.7139	64.3739	63.7455	5.2745	2.0000
1.7000	73.8381	64.6024	63.9025	5.2730	2.0000
1.8000	73.9623	64.8309	64.0594	5.2716	2.0000
1.9000	74.0865	65.0593	64.2163	5.2701	2.0000
2.0000	73.9724	65.0915	64.0962	5.2687	2.0000
2.1000	73.8485	65.1156	63.9646	5.2672	2.0000
2.2000	73.7245	65.1396	63.8329	5.2658	2.0000
2.3000	73.6005	65.1636	63.7013	5.2644	2.0000
2.4000	73.4766	65.1876	63.5697	5.2629	2.0000
2.5000	73.3526	65.2116	63.4381	5.2615	2.0000
2.6000	73.2286	65.2357	63.3065	5.2600	2.0000
2.7000	73.1047	65.2597	63.1748	5.2586	2.0000
2.8000	72.9807	65.2837	63.0432	5.2571	2.0000
2.9000	72.8567	65.3077	62.9116	5.2557	2.0000
3.0000	72.7328	65.3317	62.7800	5.2542	2.0000
3.1000	72.7035	65.4023	62.7238	5.2528	2.0000
3.2000	72.8427	65.5554	62.8019	5.2513	2.0000
3.3000	72.9818	65.7086	62.8800	5.2499	2.0000
3.4000	73.1210	65.8618	62.9580	5.2484	2.0000
3.5000	73.2601	66.0150	63.0361	5.2470	2.0000
3.6000	73.3993	66.1681	63.1141	5.2455	2.0000
3.7000	73.5384	66.3213	63.1922	5.2441	2.0000
3.8000	73.6776	66.4745	63.2703	5.2494	2.0000
3.9000	73.8167	66.6277	63.3483	5.2557	2.0000
4.0000	73.9558	66.7808	63.4264	5.2620	2.0000
4.1000	74.0950	66.9340	63.5044	5.2683	2.0000
4.2000	74.2341	67.0872	63.5825	5.2745	2.0000
4.3000	74.3106	67.1727	63.7192	5.2808	2.0000
4.4000	74.3378	67.2050	63.9019	5.2871	2.0000
4.5000	74.3650	67.2373	64.0846	5.2934	2.0000
4.6000	74.3922	67.2696	64.2673	5.2997	2.0000
4.7000	74.4194	67.3019	64.4500	5.3059	2.0000
4.8000	74.4466	67.3342	64.6327	5.3122	2.0000
4.9000	74.4738	67.3665	64.8154	5.3185	2.0000
5.0000	74.5009	67.3988	64.9982	5.3248	2.0000
5.1000	74.5281	67.4311	65.1809	5.3311	2.0000
5.2000	74.5553	67.4634	65.3636	5.3373	2.0000
5.3000	74.5825	67.4958	65.5463	5.3436	2.0000
5.4000	74.6097	67.5281	65.7290	5.3499	2.0000
5.5000	74.5599	67.4694	65.7906	5.3562	2.0000
5.6000	74.3733	67.2491	65.6368	5.3625	2.0000
5.7000	74.1867	67.0287	65.4830	5.3687	2.0000
5.8000	74.0001	66.8084	65.3292	5.3750	2.0000
5.9000	73.8135	66.5880	65.1753	5.3813	2.0000
6.0000	73.6269	66.3677	65.0215	5.3876	2.0000
6.1000	73.4403	66.1473	64.8677	5.3939	2.0000
6.2000	73.2537	65.9270	64.7139	5.4001	2.0000
6.3000	73.0671	65.7067	64.5601	5.4064	2.0000
6.4000	72.8804	65.4863	64.4063	5.4127	2.0000
6.5000	72.6938	65.2660	64.2525	5.4190	2.0000
6.6000	72.5072	65.0456	64.0987	5.4253	2.0000
6.7000	72.4957	64.9720	64.0498	5.4315	2.0000
6.8000	72.6334	65.0233	64.0904	5.4378	2.0000
6.9000	72.7711	65.0746	64.1309	5.4441	2.0000
7.0000	72.9088	65.1259	64.1714	5.4475	2.0000
7.1000	73.0465	65.1772	64.2120	5.4458	2.0000
7.2000	73.1842	65.2285	64.2525	5.4441	2.0000
7.3000	73.3219	65.2798	64.2930	5.4424	2.0000
7.4000	73.4597	65.3311	64.3336	5.4407	2.0000
7.5000	73.5974	65.3824	64.3741	5.4390	2.0000
7.6000	73.7351	65.4337	64.4146	5.4373	2.0000
7.7000	73.8728	65.4850	64.4552	5.4355	2.0000
7.8000	74.0105	65.5363	64.4957	5.4338	2.0000
7.9000	74.0911	65.5476	64.5212	5.4321	2.0000
8.0000	74.0388	65.4655	64.5118	5.4304	2.0000
8.1000	73.9864	65.3833	64.5024	5.4287	2.0000
8.2000	73.9341	65.3012	64.4930	5.4270	2.0000
8.3000	73.8817	65.2191	64.4835	5.4253	2.0000
8.4000	73.8294	65.1370	64.4741	5.4236	2.0000
8.5000	73.7770	65.0549	64.4647	5.4219	2.0000
8.6000	73.7247	64.9728	64.4553	5.4202	2.0000
8.7000	73.6723	64.8907	64.4458	5.4184	2.0000
8.8000	73.6200	64.8086	64.4364	5.4167	2.0000
8.9000	73.5676	64.7265	64.4270	5.4150	2.0000
9.0000	73.5153	64.6443	64.4175	5.4133	2.0000
9.1000	73.4629	64.5622	64.4081	5.4116	2.0000
9.2000	73.3064	64.4828	64.2917	5.4099	2.0000
9.3000	73.1477	64.4035	64.1732	5.4082	2.0000
9.4000	72.9891	64.3242	64.0546	5.4065	2.0000
9.5000	72.8305	64.2448	63.9361	5.4048	2.0000
9.6000	72.6718	64.1655	63.8175	5.4031	2.0000
9.7000	72.5132	64.0862	63.6989	5.4013	2.0000
9.8000	72.3546	64.0068	63.5804	5.3996	2.0000
9.9000	72.1959	63.9275	63.4618	5.3979	2.0000
10.0000	72.0373	63.8481	63.3433	5.3962	2.0000
10.1000	71.8786	63.7688	63.2247	5.3945	2.0000
10.2000	71.7200	63.6895	63.1062	5.3928	2.0000
10.3000	71.6304	63.6828	63.0206	5.3911	2.0000
10.4000	71.7373	63.8828	63.0289	5.3894	2.0000
10.5000	71.8443	64.0828	63.0373	5.3881	2.0000
10.6000	71.9512	64.2828	63.0456	5.3869	2.0000
10.7000	72.0582	64.4828	63.0539	5.3856	2.0000
10.8000	72.1651	64.6828	63.0623	5.3843	2.0000
10.9000	72.2720	64.8828	63.0706	5.3830	2.0000
11.0000	72.3790	65.0828	63.0789	5.3818	2.0000
11.1000	72.4859	65.2828	63.0873	5.3805	2.0000
11.2000	72.5928	65.4828	63.0956	5.3792	2.0000
11.3000	72.6998	65.6828	63.1040	5.3779	2.0000
11.4000	72.8067	65.8828	63.1123	5.3767	2.0000
11.5000	72.8839	66.0511	63.0889	5.3754	2.0000
11.6000	72.7784	66.0243	62.8705	5.3741	2.0000
11.7000	72.6728	65.9976	62.6522	5.3728	2.0000
11.8000	72.5673	65.9708	62.4338	5.3716	2.0000
11.9000	72.4617	65.9440	62.2155	5.3703	2.0000
12.0000	72.3562	65.9173	61.9971	5.3690	2.0000
12.1000	72.2506	65.8905	61.7787	5.3677	2.0000
12.2000	72.1450	65.8638	61.5604	5.3665	2.0000
12.3000	72.0395	65.8370	61.3420	5.3652	2.0000
12.4000	71.9339	65.8103	61.1237	5.3639	2.0000
12.5000	71.8284	65.7835	60.9053	5.3626	2.0000
12.6000	71.7228	65.7568	60.6869	5.3614	2.0000
12.7000	71.6173	65.7300	60.4686	5.3601	2.0000
12.8000	71.4575	65.5565	60.2731	5.3588	2.0000
12.9000	71.2965	65.3800	60.0780	5.3575	2.0000
13.0000	71.1356	65.2034	59.8830	5.3562	2.0000
13.1000	70.9746	65.0269	59.6879	5.3550	2.0000
13.2000	70.8137	64.8504	59.4929	5.3537	2.0000
13.3000	70.6527	64.6739	59.2978	5.3524	2.0000
13.4000	70.4918	64.4974	59.1028	5.3511	2.0000
13.5000	70.3309	64.3208	58.9078	5.3499	2.0000
13.6000	70.1699	64.1443	58.7127	5.3486	2.0000
13.7000	70.0090	63.9678	58.5177	5.3475	2.0000
13.8000	69.8480	63.7913	58.3226	5.3472	2.0000
13.9000	69.7037	63.6345	58.1487	5.3470	2.0000
14.0000	69.7506	63.7044	58.2174	5.3467	2.0000
14.1000	69.7975	63.7744	58.2861	5.3464	2.0000
14.2000	69.8444	63.8443	58.3548	5.3462	2.0000
14.3000	69.8913	63.9143	58.4235	5.3459	2.0000
14.4000	69.9381	63.9842	58.4922	5.3456	2.0000
14.5000	69.9850	64.0542	58.5609	5.3454	2.0000
14.6000	70.0319	64.1242	58.6296	5.3451	2.0000
14.7000	70.0788	64.1941	58.6983	5.3448	2.0000
14.8000	70.1257	64.2641	58.7671	5.3445	2.0000
14.9000	70.1726	64.3340	58.8358	5.3443	2.0000
15.0000	70.2195	64.4040	58.9045	5.3440	2.0000
15.1000	70.2663	64.4739	58.9732	5.3437	2.0000
15.2000	70.1651	64.3276	58.9062	5.3435	2.0000
15.3000	70.0398	64.1461	58.8172	5.3432	2.0000
15.4000	69.9145	63.9647	58.7281	5.3429	2.0000
15.5000	69.7892	63.7832	58.6391	5.3426	2.0000
15.6000	69.6639	63.6017	58.5500	5.3424	2.0000
15.7000	69.5385	63.4202	58.4610	5.3421	2.0000
15.8000	69.4132	63.2387	58.3719	5.3418	2.0000
15.9000	69.2879	63.0572	58.2829	5.3416	2.0000
16.0000	69.1626	62.8757	58.1938	5.3413	2.0000
16.1000	69.0373	62.6942	58.1048	5.3410	2.0000
16.2000	68.9119	62.5128	58.0157	5.3407	2.0000
16.3000	68.7866	62.3313	57.9267	5.3405	2.0000
16.4000	68.6807	62.2304	57.9332	5.3402	2.0000
16.5000	68.5780	62.1428	57.9552	5.3399	2.0000
16.6000	68.4753	62.0551	57.9772	5.3397	2.0000
16.7000	68.3726	61.9674	57.9992	5.3394	2.0000
16.8000	68.2698	61.8797	58.0212	5.3391	2.0000
16.9000	68.1671	61.7920	58.0433	5.3388	2.0000
17.0000	68.0644	61.7043	58.0653	5.3386	2.0000
17.1000	67.9616	61.6166	58.0873	5.3383	2.0000
17.2000	67.8589	61.5289	58.1093	5.3380	2.0000
17.3000	67.7562	61.4412	58.1314	5.3378	2.0000
17.4000	67.6535	61.3535	58.1534	5.3375	2.0000
17.5000	67.5820	61.3070	58.2045	5.3373	2.0000
17.6000	67.6746	61.4772	58.4083	5.3372	2.0000
17.7000	67.7672	61.6473	58.6122	5.3372	2.0000
17.8000	67.8599	61.8174	58.8160	5.3372	2.0000
17.9000	67.9525	61.9875	59.0199	5.3372	2.0000
18.0000	68.0451	62.1576	59.2237	5.3371	2.0000
18.1000	68.1377	62.3277	59.4275	5.3371	2.0000
18.2000	68.2304	62.4978	59.6314	5.3371	2.0000
18.3000	68.3230	62.6679	59.8352	5.3370	2.0000
18.4000	68.4156	62.8381	60.0390	5.3370	2.0000
18.5000	68.5083	63.0082	60.2429	5.3370	2.0000
18.6000	68.6009	63.1783	60.4467	5.3369	2.0000
18.7000	68.6423	63.2992	60.5900	5.3369	2.0000
18.8000	68.4789	63.2232	60.4912	5.3369	2.0000
18.9000	68.3156	63.1472	60.3923	5.3368	2.0000
19.0000	68.1522	63.0713	60.2934	5.3368	2.0000
19.1000	67.9888	62.9953	60.1945	5.3368	2.0000
19.2000	67.8255	62.9193	60.0957	5.3367	2.0000
19.3000	67.6621	62.8434	59.9968	5.3367	2.0000
19.4000	67.4987	62.7674	59.8979	5.3367	2.0000
19.5000	67.3354	62.6915	59.7991	5.3366	2.0000
19.6000	67.1720	62.6155	59.7002	5.3366	2.0000
19.7000	67.0086	62.5395	59.6013	5.3366	2.0000
19.8000	66.8453	62.4636	59.5025	5.3366	2.0000
19.9000	66.7711	62.4807	59.4843	5.3365	2.0000
20.0000	66.7862	62.5909	59.5467	5.3365	2.0000
20.1000	66.8014	62.7010	59.6092	5.3365	2.0000
20.2000	66.8165	62.8112	59.6717	5.3364	2.0000
20.3000	66.8316	62.9214	59.7342	5.3364	2.0000
20.4000	66.8467	63.0316	59.7967	5.3364	2.0000
20.5000	66.8618	63.1418	59.8591	5.3363	2.0000
20.6000	66.8769	63.2519	59.9216	5.3379	2.0000
20.7000	66.8920	63.3621	59.9841	5.3395	2.0000
20.8000	66.9072	63.4723	60.0466	5.3411	2.0000
20.9000	66.9223	63.5825	60.1091	5.3427	2.0000
21.0000	66.9374	63.6927	60.1715	5.3443	2.0000
21.1000	67.0007	63.8012	60.2926	5.3459	2.0000
21.2000	67.1204	63.9077	60.4823	5.3475	2.0000
21.3000	67.2402	64.0142	60.6721	5.3491	2.0000
21.4000	67.3600	64.1207	60.8619	5.3507	2.0000
21.5000	67.4798	64.2272	61.0517	5.3523	2.0000
21.6000	67.5996	64.3337	61.2414	5.3539	2.0000
21.7000	67.7193	64.4402	61.4312	5.3555	2.0000
21.8000	67.8391	64.5467	61.6210	5.3572	2.0000
21.9000	67.9589	64.6533	61.8108	5.3588	2.0000
22.0000	68.0787	64.7598	62.0005	5.3604	2.0000
22.1000	68.1984	64.8663	62.1903	5.3620	2.0000
22.2000	68.3182	64.9728	62.3801	5.3636	2.0000
22.3000	68.4121	65.0121	62.4884	5.3652	2.0000
22.4000	68.4321	64.8599	62.3650	5.3668	2.0000
22.5000	68.4522	64.7078	62.2416	5.3684	2.0000
22.6000	68.4723	64.5557	62.1182	5.3700	2.0000
22.7000	68.4923	64.4036	61.9948	5.3716	2.0000
22.8000	68.5124	64.2515	61.8714	5.3732	2.0000
22.9000	68.5325	64.0994	61.7480	5.3748	2.0000
23.0000	68.5525	63.9473	61.6246	5.3764	2.0000
23.1000	68.5726	63.7952	61.5012	5.3780	2.0000
23.2000	68.5927	63.6430	61.3778	5.3796	2.0000
23.3000	68.6127	63.4909	61.2544	5.3812	2.0000
23.4000	68.6328	63.3388	61.1310	5.3828	2.0000
23.5000	68.6972	63.2514	61.0012	5.3845	2.0000
23.6000	68.8755	63.3302	60.8549	5.3861	2.0000
23.7000	69.0539	63.4090	60.7087	5.3877	2.0000
23.8000	69.2323	63.4878	60.5624	5.3893	2.0000
23.9000	69.4107	63.5666	60.4161	5.3909	2.0000
24.0000	69.5890	63.6455	60.2698	5.3925	2.0000
24.1000	69.7674	63.7243	60.1235	5.3943	2.0000
24.2000	69.9458	63.8031	59.9772	5.3962	2.0000
24.3000	70.1241	63.8819	59.8309	5.3981	2.0000
24.4000	70.3025	63.9607	59.6846	5.4000	2.0000
24.5000	70.4809	64.0395	59.5384	5.4019	2.0000
24.6000	70.6592	64.1184	59.3921	5.4038	2.0000
24.7000	70.8376	64.1972	59.2458	5.4057	2.0000
24.8000	70.8486	64.1486	59.1290	5.4075	2.0000
24.9000	70.8324	64.0793	59.0170	5.4094	2.0000
25.0000	70.8161	64.0099	58.9051	5.4113	2.0000
25.1000	70.7999	63.9406	58.7931	5.4132	2.0000
25.2000	70.7836	63.8713	58.6811	5.4151	2.0000
25.3000	70.7674	63.8020	58.5691	5.4170	2.0000
25.4000	70.7511	63.7326	58.4571	5.4189	2.0000
25.5000	70.7349	63.6633	58.3452	5.4208	2.0000
25.6000	70.7186	63.5940	58.2332	5.4227	2.0000
25.7000	70.7024	63.5246	58.1212	5.4246	2.0000
25.8000	70.6861	63.4553	58.0092	5.4265	2.0000
25.9000	70.6699	63.3860	57.8972	5.4283	2.0000
26.0000	70.5794	63.2585	57.7052	5.4302	2.0000
26.1000	70.3866	63.0506	57.4026	5.4321	2.0000
26.2000	70.1937	62.8427	57.0999	5.4340	2.0000
26.3000	70.0009	62.6348	56.7973	5.4359	2.0000
26.4000	69.8080	62.4269	56.4946	5.4378	2.0000
26.5000	69.6152	62.2190	56.1920	5.4397	2.0000
26.6000	69.4223	62.0111	55.8893	5.4416	2.0000
26.7000	69.2295	61.8032	55.5867	5.4435	2.0000
26.8000	69.0366	61.5953	55.2841	5.4454	2.0000
26.9000	68.8438	61.3874	54.9814	5.4473	2.0000
27.0000	68.6509	61.1795	54.6788	5.4491	2.0000
27.1000	68.4581	60.9716	54.3761	5.4510	2.0000
27.2000	68.2997	60.8310	54.1352	5.4529	2.0000
27.3000	68.3224	61.0441	54.2182	5.4503	2.0000
27.4000	68.3451	61.2571	54.3011	5.4470	2.0000
27.5000	68.3678	61.4702	54.3841	5.4437	2.0000
27.6000	68.3905	61.6832	54.4671	5.4404	2.0000
27.7000	68.4132	61.8962	54.5501	5.4371	2.0000
27.8000	68.4359	62.1093	54.6330	5.4338	2.0000
27.9000	68.4586	62.3223	54.7160	5.4305	2.0000
28.0000	68.4813	62.5354	54.7990	5.4272	2.0000
28.1000	68.5040	62.7484	54.8820	5.4239	2.0000
28.2000	68.5267	62.9614	54.9650	5.4206	2.0000
28.3000	68.5494	63.1745	55.0479	5.4173	2.0000
28.4000	68.5721	63.3875	55.1309	5.4140	2.0000
28.5000	68.5164	63.4794	55.2334	5.4107	2.0000
28.6000	68.3992	63.4760	55.3513	5.4074	2.0000
28.7000	68.2819	63.4727	55.4692	5.4041	2.0000
28.8000	68.1646	63.4694	55.5871	5.4008	2.0000
28.9000	68.0473	63.4660	55.7050	5.3975	2.0000
29.0000	67.9301	63.4627	55.8229	5.3942	2.0000
29.1000	67.8128	63.4593	55.9408	5.3909	2.0000
29.2000	67.6955	63.4560	56.0587	5.3876	2.0000
29.3000	67.5782	63.4526	56.1766	5.3843	2.0000
29.4000	67.4609	63.4493	56.2945	5.3810	2.0000
29.5000	67.3437	63.4460	56.4124	5.3777	2.0000
29.6000	67.2264	63.4426	56.5303	5.3744	2.0000
29.7000	67.1091	63.4393	56.6482	5.3711	2.0000
29.8000	66.9677	63.3257	56.7280	5.3678	2.0000
29.9000	66.8258	63.2100	56.8071	5.3645	2.0000
30.0000	66.6839	63.0942	56.8862	5.3612	2.0000
30.1000	66.5420	62.9784	56.9653	5.3579	2.0000
30.2000	66.4001	62.8626	57.0444	5.3546	2.0000
30.3000	66.2581	62.7469	57.1235	5.3513	2.0000
30.4000	66.1162	62.6311	57.2026	5.3480	2.0000
30.5000	65.9743	62.5153	57.2817	5.3447	2.0000
30.6000	65.8324	62.3995	57.3608	5.3414	2.0000
30.7000	65.6905	62.2837	57.4399	5.3446	2.0000
30.8000	65.5486	62.1680	57.5190	5.3484	2.0000
30.9000	65.4067	62.0522	57.5980	5.3522	2.0000
31.0000	65.4639	62.2825	57.8817	5.3559	2.0000
31.1000	65.5339	62.5350	58.1785	5.3597	2.0000
31.2000	65.6039	62.7874	58.4752	5.3635	2.0000
31.3000	65.6739	63.0398	58.7720	5.3673	2.0000
31.4000	65.7438	63.2923	59.0687	5.3710	2.0000
31.5000	65.8138	63.5447	59.3655	5.3748	2.0000
31.6000	65.8838	63.7971	59.6622	5.3786	2.0000
31.7000	65.9537	64.0496	59.9590	5.3823	2.0000
31.8000	66.0237	64.3020	60.2558	5.3861	2.0000
31.9000	66.0937	64.5545	60.5525	5.3899	2.0000
32.0000	66.1637	64.8069	60.8493	5.3937	2.0000
32.1000	66.2336	65.0593	61.1460	5.3974	2.0000
32.2000	66.2322	65.1578	61.2861	5.4012	2.0000
32.3000	66.2083	65.2077	61.3767	5.4050	2.0000
32.4000	66.1843	65.2576	61.4672	5.4088	2.0000
32.5000	66.1604	65.3075	61.5578	5.4125	2.0000
32.6000	66.1364	65.3574	61.6484	5.4163	2.0000
32.7000	66.1125	65.4073	61.7390	5.4201	2.0000
32.8000	66.0885	65.4572	61.8296	5.4238	2.0000
32.9000	66.0646	65.5071	61.9202	5.4276	2.0000
33.0000	66.0406	65.5570	62.0108	5.4314	2.0000
33.1000	66.0167	65.6069	62.1013	5.4352	2.0000
33.2000	65.9927	65.6568	62.1919	5.4389	2.0000
33.3000	65.9688	65.7067	62.2825	5.4427	2.0000
33.4000	66.0117	65.7506	62.2771	5.4465	2.0000
33.5000	66.0923	65.7911	62.2178	5.4503	2.0000
33.6000	66.1729	65.8316	62.1584	5.4540	2.0000
33.7000	66.2534	65.8721	62.0990	5.4578	2.0000
33.8000	66.3340	65.9126	62.0397	5.4616	2.0000
33.9000	66.4146	65.9531	61.9803	5.4653	2.0000
34.0000	66.4952	65.9936	61.9210	5.4691	2.0000
34.1000	66.5757	66.0341	61.8616	5.4729	2.0000
34.2000	66.6563	66.0746	61.8022	5.4767	2.0000
34.3000	66.7369	66.1151	61.7429	5.4804	2.0000
34.4000	66.8175	66.1556	61.6835	5.4842	2.0000
34.5000	66.8980	66.1961	61.6241	5.4880	2.0000
34.6000	67.1433	66.4237	61.8553	5.4918	2.0000
34.7000	67.4154	66.6817	62.1339	5.4950	2.0000
34.8000	67.6875	66.9398	62.4124	5.4978	2.0000
34.9000	67.9596	67.1979	62.6909	5.5006	2.0000
35.0000	68.2316	67.4560	62.9694	5.5035	2.0000
35.1000	68.5037	67.7140	63.2479	5.5063	2.0000
35.2000	68.7758	67.9721	63.5264	5.5091	2.0000
35.3000	69.0479	68.2302	63.8049	5.5119	2.0000
35.4000	69.3200	68.4882	64.0834	5.5147	2.0000
35.5000	69.5921	68.7463	64.3619	5.5176	2.0000
35.6000	69.8641	69.0044	64.6404	5.5204	2.0000
35.7000	70.1362	69.2624	64.9189	5.5232	2.0000
35.8000	70.2192	69.2804	64.9423	5.5260	2.0000
35.9000	70.2132	69.1854	64.8456	5.5288	2.0000
36.0000	70.2072	69.0904	64.7489	5.5317	2.0000
36.1000	70.2013	68.9954	64.6522	5.5345	2.0000
36.2000	70.1953	68.9005	64.5555	5.5373	2.0000
36.3000	70.1893	68.8055	64.4587	5.5401	2.0000
36.4000	70.1833	68.7105	64.3620	5.5429	2.0000
36.5000	70.1773	68.6155	64.2653	5.5458	2.0000
36.6000	70.1713	68.5205	64.1686	5.5486	2.0000
36.7000	70.1654	68.4255	64.0719	5.5514	2.0000
36.8000	70.1594	68.3305	63.9752	5.5542	2.0000
36.9000	70.1534	68.2355	63.8785	5.5570	2.0000
37.0000	70.1047	68.0853	63.7558	5.5599	2.0000
37.1000	70.0224	67.8918	63.6127	5.5627	2.0000
37.2000	69.9401	67.6982	63.4695	5.5655	2.0000
37.3000	69.8579	67.5046	63.3264	5.5683	2.0000
37.4000	69.7756	67.3110	63.1833	5.5711	2.0000
37.5000	69.6933	67.1174	63.0402	5.5740	2.0000
37.6000	69.6111	66.9238	62.8971	5.5768	2.0000
37.7000	69.5288	66.7303	62.7539	5.5796	2.0000
37.8000	69.4465	66.5367	62.6108	5.5824	2.0000
37.9000	69.3643	66.3431	62.4677	5.5852	2.0000
38.0000	69.2820	66.1495	62.3246	5.5881	2.0000
38.1000	69.1997	65.9559	62.1815	5.5892	2.0000
38.2000	69.2438	65.9265	62.1478	5.5851	2.0000
38.3000	69.3322	65.9547	62.1526	5.5809	2.0000
38.4000	69.4206	65.9830	62.1573	5.5768	2.0000
38.5000	69.5090	66.0113	62.1621	5.5726	2.0000
38.6000	69.5975	66.0395	62.1669	5.5685	2.0000
38.7000	69.6859	66.0678	62.1717	5.5643	2.0000
38.8000	69.7743	66.0960	62.1764	5.5602	2.0000
38.9000	69.8627	66.1243	62.1812	5.5560	2.0000
39.0000	69.9511	66.1525	62.1860	5.5519	2.0000
39.1000	70.0395	66.1808	62.1908	5.5478	2.0000
39.2000	70.1280	66.2090	62.1955	5.5436	2.0000
39.3000	70.2164	66.2373	62.2003	5.5395	2.0000
39.4000	70.1688	66.1462	62.1154	5.5353	2.0000
39.5000	70.0145	65.9612	61.9600	5.5312	2.0000
39.6000	69.8601	65.7762	61.8046	5.5270	2.0000
39.7000	69.7057	65.5913	61.6492	5.5229	2.0000
39.8000	69.5514	65.4063	61.4938	5.5188	2.0000
39.9000	69.3970	65.2214	61.3383	5.5146	2.0000
40.0000	69.2426	65.0364	61.1829	5.5105	2.0000
40.1000	69.0882	64.8515	61.0275	5.5063	2.0000
40.2000	68.9339	64.6665	60.8721	5.5022	2.0000
40.3000	68.7795	64.4815	60.7167	5.4980	2.0000
40.4000	68.6251	64.2966	60.5613	5.4939	2.0000
40.5000	68.4708	64.1116	60.4059	5.4897	2.0000
40.6000	68.3288	63.9388	60.2755	5.4856	2.0000
40.7000	68.2107	63.7893	60.1936	5.4815	2.0000
40.8000	68.0927	63.6399	60.1117	5.4773	2.0000
40.9000	67.9747	63.4904	60.0298	5.4732	2.0000
41.0000	67.8566	63.3410	59.9479	5.4690	2.0000
41.1000	67.7386	63.1916	59.8660	5.4649	2.0000
41.2000	67.6206	63.0421	59.7841	5.4607	2.0000
41.3000	67.5026	62.8927	59.7022	5.4566	2.0000
41.4000	67.3845	62.7432	59.6203	5.4524	2.0000
41.5000	67.2665	62.5938	59.5384	5.4483	2.0000
41.6000	67.1485	62.4444	59.4565	5.4454	2.0000
41.7000	67.0304	62.2949	59.3746	5.4456	2.0000
41.8000	66.9988	62.3083	59.4452	5.4459	2.0000
41.9000	67.0685	62.5128	59.6947	5.4461	2.0000
42.0000	67.1383	62.7172	59.9442	5.4464	2.0000
42.1000	67.2080	62.9217	60.1937	5.4466	2.0000
42.2000	67.2777	63.1262	60.4431	5.4469	2.0000
42.3000	67.3474	63.3307	60.6926	5.4471	2.0000
42.4000	67.4172	63.5351	60.9421	5.4474	2.0000
42.5000	67.4869	63.7396	61.1916	5.4476	2.0000
