Time	MABP [mmHg]	CBFV-L [cm/s]	CBFV-R [cm/s]	etCO2 [kPa]	MN					
0.0000	78.6854	67.7676	0.0000	4.3601	2.0000
0.1000	78.9884	68.2211	0.0000	4.3601	2.0000
0.2000	79.2914	68.6746	0.0000	4.3601	2.0000
0.3000	79.5944	69.1280	0.0000	4.3601	2.0000
0.4000	79.8974	69.5815	0.0000	4.3601	2.0000
0.5000	80.2223	70.0268	0.0000	4.3601	2.0000
0.6000	80.6624	70.4294	0.0000	4.3601	2.0000
0.7000	81.1025	70.8320	0.0000	4.3599	2.0000
0.8000	81.5426	71.2345	0.0000	4.3598	2.0000
0.9000	81.9827	71.6371	0.0000	4.3597	2.0000
1.0000	82.4228	72.0397	0.0000	4.3595	2.0000
1.1000	82.8629	72.4423	0.0000	4.3594	2.0000
1.2000	83.3030	72.8448	0.0000	4.3592	2.0000
1.3000	83.6936	73.1909	0.0000	4.3591	2.0000
1.4000	83.9088	73.3366	0.0000	4.3590	2.0000
1.5000	84.1239	73.4822	0.0000	4.3588	2.0000
1.6000	84.3391	73.6279	0.0000	4.3587	2.0000
1.7000	84.5542	73.7736	0.0000	4.3586	2.0000
1.8000	84.7694	73.9193	0.0000	4.3584	2.0000
1.9000	84.9845	74.0649	0.0000	4.3583	2.0000
2.0000	85.1997	74.2106	0.0000	4.3582	2.0000
2.1000	85.4131	74.3475	0.0000	4.3580	2.0000
2.2000	85.5985	74.3465	0.0000	4.3579	2.0000
2.3000	85.7839	74.3456	0.0000	4.3577	2.0000
2.4000	85.9693	74.3446	0.0000	4.3576	2.0000
2.5000	86.1547	74.3437	0.0000	4.3575	2.0000
2.6000	86.3402	74.3427	0.0000	4.3573	2.0000
2.7000	86.5256	74.3418	0.0000	4.3572	2.0000
2.8000	86.7110	74.3408	0.0000	4.3571	2.0000
2.9000	86.9047	74.3534	0.0000	4.3569	2.0000
3.0000	87.2291	74.5784	0.0000	4.3568	2.0000
3.1000	87.5535	74.8033	0.0000	4.3566	2.0000
3.2000	87.8779	75.0283	0.0000	4.3565	2.0000
3.3000	88.2023	75.2533	0.0000	4.3564	2.0000
3.4000	88.5266	75.4782	0.0000	4.3562	2.0000
3.5000	88.8510	75.7032	0.0000	4.3561	2.0000
3.6000	89.1754	75.9282	0.0000	4.3560	2.0000
3.7000	89.4630	76.1225	0.0000	4.3558	2.0000
3.8000	89.6342	76.2201	0.0000	4.3557	2.0000
3.9000	89.8055	76.3176	0.0000	4.3556	2.0000
4.0000	89.9767	76.4152	0.0000	4.3554	2.0000
4.1000	90.1479	76.5127	0.0000	4.3553	2.0000
4.2000	90.3192	76.6102	0.0000	4.3551	2.0000
4.3000	90.4904	76.7078	0.0000	4.3550	2.0000
4.4000	90.6616	76.8053	0.0000	4.3549	2.0000
4.5000	90.8328	76.9028	0.0000	4.3547	2.0000
4.6000	90.6979	76.5036	0.0000	4.3546	2.0000
4.7000	90.4663	75.9474	0.0000	4.3545	2.0000
4.8000	90.2347	75.3913	0.0000	4.3543	2.0000
4.9000	90.0031	74.8352	0.0000	4.3542	2.0000
5.0000	89.7714	74.2790	0.0000	4.3541	2.0000
5.1000	89.5398	73.7229	0.0000	4.3539	2.0000
5.2000	89.3082	73.1667	0.0000	4.3538	2.0000
5.3000	89.0766	72.6106	0.0000	4.3536	2.0000
5.4000	88.8450	72.0545	0.0000	4.3535	2.0000
5.5000	88.5325	71.6012	0.0000	4.3534	2.0000
5.6000	88.1614	71.2225	0.0000	4.3532	2.0000
5.7000	87.7903	70.8437	0.0000	4.3531	2.0000
5.8000	87.4193	70.4650	0.0000	4.3530	2.0000
5.9000	87.0482	70.0863	0.0000	4.3528	2.0000
6.0000	86.6771	69.7075	0.0000	4.3527	2.0000
6.1000	86.3060	69.3288	0.0000	4.3525	2.0000
6.2000	85.9350	68.9500	0.0000	4.3524	2.0000
6.3000	85.5639	68.5713	0.0000	4.3523	2.0000
6.4000	85.2084	68.2765	0.0000	4.3521	2.0000
6.5000	84.8642	68.0426	0.0000	4.3520	2.0000
6.6000	84.5200	67.8086	0.0000	4.3519	2.0000
6.7000	84.1758	67.5746	0.0000	4.3517	2.0000
6.8000	83.8315	67.3407	0.0000	4.3516	2.0000
6.9000	83.4873	67.1067	0.0000	4.3515	2.0000
7.0000	83.1431	66.8727	0.0000	4.3513	2.0000
7.1000	82.7989	66.6388	0.0000	4.3512	2.0000
7.2000	82.4547	66.4048	0.0000	4.3510	2.0000
7.3000	82.4135	66.6988	0.0000	4.3509	2.0000
7.4000	82.3916	67.0264	0.0000	4.3508	2.0000
7.5000	82.3697	67.3540	0.0000	4.3506	2.0000
7.6000	82.3479	67.6817	0.0000	4.3505	2.0000
7.7000	82.3260	68.0093	0.0000	4.3504	2.0000
7.8000	82.3042	68.3370	0.0000	4.3502	2.0000
7.9000	82.2823	68.6646	0.0000	4.3501	2.0000
8.0000	82.2604	68.9923	0.0000	4.3499	2.0000
8.1000	82.1741	69.1544	0.0000	4.3390	2.0000
8.2000	81.9732	69.0223	0.0000	4.3280	2.0000
8.3000	81.7723	68.8902	0.0000	4.3170	2.0000
8.4000	81.5714	68.7581	0.0000	4.3060	2.0000
8.5000	81.3705	68.6260	0.0000	4.2950	2.0000
8.6000	81.1695	68.4939	0.0000	4.2840	2.0000
8.7000	80.9686	68.3618	0.0000	4.2730	2.0000
8.8000	80.7677	68.2297	0.0000	4.2620	2.0000
8.9000	80.5668	68.0976	0.0000	4.2510	2.0000
9.0000	80.3326	67.9724	0.0000	4.2400	2.0000
9.1000	80.0207	67.8633	0.0000	4.2290	2.0000
9.2000	79.7088	67.7542	0.0000	4.2180	2.0000
9.3000	79.3969	67.6451	0.0000	4.2070	2.0000
9.4000	79.0850	67.5360	0.0000	4.1960	2.0000
9.5000	78.7731	67.4269	0.0000	4.1850	2.0000
9.6000	78.4612	67.3178	0.0000	4.1740	2.0000
9.7000	78.1493	67.2087	0.0000	4.1630	2.0000
9.8000	77.8374	67.0996	0.0000	4.1520	2.0000
9.9000	77.7956	67.2274	0.0000	4.1410	2.0000
10.0000	77.9339	67.5131	0.0000	4.1300	2.0000
10.1000	78.0721	67.7989	0.0000	4.1190	2.0000
10.2000	78.2103	68.0847	0.0000	4.1080	2.0000
10.3000	78.3486	68.3704	0.0000	4.0970	2.0000
10.4000	78.4868	68.6562	0.0000	4.0861	2.0000
10.5000	78.6251	68.9419	0.0000	4.0751	2.0000
10.6000	78.7633	69.2277	0.0000	4.0641	2.0000
10.7000	78.8271	69.4547	0.0000	4.0531	2.0000
10.8000	78.8035	69.6126	0.0000	4.0421	2.0000
10.9000	78.7799	69.7706	0.0000	4.0311	2.0000
11.0000	78.7563	69.9286	0.0000	4.0201	2.0000
11.1000	78.7326	70.0866	0.0000	4.0091	2.0000
11.2000	78.7090	70.2446	0.0000	3.9981	2.0000
11.3000	78.6854	70.4026	0.0000	3.9871	2.0000
11.4000	78.6618	70.5606	0.0000	3.9761	2.0000
11.5000	78.6449	70.7120	0.0000	3.9651	2.0000
11.6000	78.6879	70.8048	0.0000	3.9541	2.0000
11.7000	78.7309	70.8975	0.0000	3.9431	2.0000
11.8000	78.7739	70.9903	0.0000	3.9321	2.0000
11.9000	78.8169	71.0830	0.0000	3.9211	2.0000
12.0000	78.8599	71.1757	0.0000	3.9101	2.0000
12.1000	78.9029	71.2685	0.0000	3.8991	2.0000
12.2000	78.9459	71.3612	0.0000	3.8881	2.0000
12.3000	79.0129	71.4774	0.0000	3.8771	2.0000
12.4000	79.3568	71.8628	0.0000	3.8661	2.0000
12.5000	79.7007	72.2483	0.0000	3.8551	2.0000
12.6000	80.0445	72.6338	0.0000	3.8441	2.0000
12.7000	80.3884	73.0192	0.0000	3.8332	2.0000
12.8000	80.7323	73.4047	0.0000	3.8222	2.0000
12.9000	81.0761	73.7902	0.0000	3.8112	2.0000
13.0000	81.4200	74.1756	0.0000	3.8002	2.0000
13.1000	81.7639	74.5611	0.0000	3.7892	2.0000
13.2000	81.9949	74.6957	0.0000	3.7782	2.0000
13.3000	82.1902	74.7511	0.0000	3.7672	2.0000
13.4000	82.3855	74.8065	0.0000	3.7562	2.0000
13.5000	82.5809	74.8619	0.0000	3.7452	2.0000
13.6000	82.7762	74.9173	0.0000	3.7342	2.0000
13.7000	82.9715	74.9727	0.0000	3.7232	2.0000
13.8000	83.1669	75.0281	0.0000	3.7122	2.0000
13.9000	83.3622	75.0835	0.0000	3.7012	2.0000
14.0000	83.5575	75.1389	0.0000	3.6902	2.0000
14.1000	83.5897	74.9797	0.0000	3.6792	2.0000
14.2000	83.5038	74.6650	0.0000	3.6682	2.0000
14.3000	83.4178	74.3504	0.0000	3.6572	2.0000
14.4000	83.3319	74.0357	0.0000	3.6462	2.0000
14.5000	83.2460	73.7211	0.0000	3.6352	2.0000
14.6000	83.1600	73.4064	0.0000	3.6242	2.0000
14.7000	83.0741	73.0918	0.0000	3.6132	2.0000
14.8000	82.9881	72.7772	0.0000	3.6022	2.0000
14.9000	82.9022	72.4625	0.0000	3.5912	2.0000
15.0000	82.8155	72.1054	0.0000	3.5802	2.0000
15.1000	82.7280	71.6985	0.0000	3.5693	2.0000
15.2000	82.6405	71.2915	0.0000	3.5583	2.0000
15.3000	82.5530	70.8846	0.0000	3.5473	2.0000
15.4000	82.4654	70.4776	0.0000	3.5363	2.0000
15.5000	82.3779	70.0707	0.0000	3.5253	2.0000
15.6000	82.2904	69.6638	0.0000	3.5143	2.0000
15.7000	82.2029	69.2568	0.0000	3.5033	2.0000
15.8000	82.1154	68.8499	0.0000	3.4923	2.0000
15.9000	82.1182	68.8306	0.0000	3.4813	2.0000
16.0000	82.1675	69.0111	0.0000	3.4703	2.0000
16.1000	82.2168	69.1915	0.0000	3.4593	2.0000
16.2000	82.2661	69.3720	0.0000	3.4483	2.0000
16.3000	82.3154	69.5525	0.0000	3.4373	2.0000
16.4000	82.3647	69.7329	0.0000	3.4334	2.0000
16.5000	82.4140	69.9134	0.0000	3.4580	2.0000
16.6000	82.4633	70.0939	0.0000	3.4825	2.0000
16.7000	82.5126	70.2743	0.0000	3.5071	2.0000
16.8000	82.4915	70.2527	0.0000	3.5317	2.0000
16.9000	82.3337	69.8388	0.0000	3.5562	2.0000
17.0000	82.1759	69.4249	0.0000	3.5808	2.0000
17.1000	82.0181	69.0110	0.0000	3.6054	2.0000
17.2000	81.8603	68.5971	0.0000	3.6299	2.0000
17.3000	81.7024	68.1832	0.0000	3.6545	2.0000
17.4000	81.5446	67.7693	0.0000	3.6791	2.0000
17.5000	81.3868	67.3554	0.0000	3.7036	2.0000
17.6000	81.2290	66.9415	0.0000	3.7282	2.0000
17.7000	81.0712	66.5276	0.0000	3.7527	2.0000
17.8000	80.7951	66.2727	0.0000	3.7773	2.0000
17.9000	80.4893	66.0576	0.0000	3.8019	2.0000
18.0000	80.1836	65.8425	0.0000	3.8264	2.0000
18.1000	79.8779	65.6273	0.0000	3.8510	2.0000
18.2000	79.5721	65.4122	0.0000	3.8756	2.0000
18.3000	79.2664	65.1970	0.0000	3.9001	2.0000
18.4000	78.9607	64.9819	0.0000	3.9247	2.0000
18.5000	78.6550	64.7668	0.0000	3.9493	2.0000
18.6000	78.3492	64.5516	0.0000	3.9738	2.0000
18.7000	78.2268	64.5526	0.0000	3.9984	2.0000
18.8000	78.1907	64.6553	0.0000	4.0229	2.0000
18.9000	78.1545	64.7580	0.0000	4.0475	2.0000
19.0000	78.1184	64.8607	0.0000	4.0721	2.0000
19.1000	78.0822	64.9634	0.0000	4.0966	2.0000
19.2000	78.0461	65.0661	0.0000	4.1212	2.0000
19.3000	78.0099	65.1688	0.0000	4.1458	2.0000
19.4000	77.9738	65.2715	0.0000	4.1703	2.0000
19.5000	77.9904	65.4346	0.0000	4.1949	2.0000
19.6000	78.1425	65.7526	0.0000	4.2195	2.0000
19.7000	78.2946	66.0707	0.0000	4.2440	2.0000
19.8000	78.4467	66.3888	0.0000	4.2431	2.0000
19.9000	78.5988	66.7069	0.0000	4.2387	2.0000
20.0000	78.7509	67.0250	0.0000	4.2343	2.0000
20.1000	78.9031	67.3430	0.0000	4.2299	2.0000
20.2000	79.0552	67.6611	0.0000	4.2254	2.0000
20.3000	79.2073	67.9792	0.0000	4.2210	2.0000
20.4000	79.2636	68.0333	0.0000	4.2166	2.0000
20.5000	79.2863	67.9945	0.0000	4.2122	2.0000
20.6000	79.3090	67.9558	0.0000	4.2078	2.0000
20.7000	79.3316	67.9171	0.0000	4.2034	2.0000
20.8000	79.3543	67.8784	0.0000	4.1990	2.0000
20.9000	79.3770	67.8397	0.0000	4.1946	2.0000
21.0000	79.3997	67.8009	0.0000	4.1902	2.0000
21.1000	79.4223	67.7622	0.0000	4.1857	2.0000
21.2000	79.4450	67.7235	0.0000	4.1813	2.0000
21.3000	79.4229	67.7313	0.0000	4.1769	2.0000
21.4000	79.3948	67.7455	0.0000	4.1725	2.0000
21.5000	79.3666	67.7597	0.0000	4.1681	2.0000
21.6000	79.3384	67.7739	0.0000	4.1637	2.0000
21.7000	79.3102	67.7881	0.0000	4.1593	2.0000
21.8000	79.2820	67.8023	0.0000	4.1549	2.0000
21.9000	79.2538	67.8165	0.0000	4.1505	2.0000
22.0000	79.2256	67.8307	0.0000	4.1460	2.0000
22.1000	79.2914	67.9350	0.0000	4.1416	2.0000
22.2000	79.4673	68.1453	0.0000	4.1372	2.0000
22.3000	79.6432	68.3555	0.0000	4.1328	2.0000
22.4000	79.8192	68.5657	0.0000	4.1284	2.0000
22.5000	79.9951	68.7759	0.0000	4.1240	2.0000
22.6000	80.1711	68.9862	0.0000	4.1196	2.0000
22.7000	80.3470	69.1964	0.0000	4.1152	2.0000
22.8000	80.5229	69.4066	0.0000	4.1107	2.0000
22.9000	80.7584	69.6171	0.0000	4.1063	2.0000
23.0000	81.0532	69.8278	0.0000	4.1019	2.0000
23.1000	81.3481	70.0386	0.0000	4.0975	2.0000
23.2000	81.6430	70.2493	0.0000	4.0931	2.0000
23.3000	81.9379	70.4600	0.0000	4.0887	2.0000
23.4000	82.2328	70.6707	0.0000	4.0843	2.0000
23.5000	82.5277	70.8814	0.0000	4.0799	2.0000
23.6000	82.8226	71.0922	0.0000	4.0761	2.0000
23.7000	83.0731	71.2691	0.0000	4.0729	2.0000
23.8000	83.0513	71.2386	0.0000	4.0696	2.0000
23.9000	83.0294	71.2081	0.0000	4.0663	2.0000
24.0000	83.0076	71.1776	0.0000	4.0631	2.0000
24.1000	82.9858	71.1471	0.0000	4.0598	2.0000
24.2000	82.9640	71.1166	0.0000	4.0565	2.0000
24.3000	82.9421	71.0861	0.0000	4.0533	2.0000
24.4000	82.9203	71.0556	0.0000	4.0500	2.0000
24.5000	82.8985	71.0251	0.0000	4.0467	2.0000
24.6000	82.8158	70.8592	0.0000	4.0434	2.0000
24.7000	82.6038	70.4054	0.0000	4.0402	2.0000
24.8000	82.3917	69.9516	0.0000	4.0369	2.0000
24.9000	82.1797	69.4978	0.0000	4.0336	2.0000
25.0000	81.9677	69.0440	0.0000	4.0304	2.0000
25.1000	81.7557	68.5902	0.0000	4.0271	2.0000
25.2000	81.5437	68.1364	0.0000	4.0238	2.0000
25.3000	81.3317	67.6826	0.0000	4.0206	2.0000
25.4000	81.1196	67.2288	0.0000	4.0173	2.0000
25.5000	80.9583	66.9270	0.0000	4.0140	2.0000
25.6000	80.8336	66.7355	0.0000	4.0107	2.0000
25.7000	80.7090	66.5439	0.0000	4.0075	2.0000
25.8000	80.5843	66.3523	0.0000	4.0042	2.0000
25.9000	80.4597	66.1607	0.0000	4.0009	2.0000
26.0000	80.3350	65.9691	0.0000	3.9977	2.0000
26.1000	80.2104	65.7775	0.0000	3.9944	2.0000
26.2000	80.0857	65.5859	0.0000	3.9911	2.0000
26.3000	79.9967	65.4374	0.0000	3.9879	2.0000
26.4000	80.0701	65.4855	0.0000	3.9846	2.0000
26.5000	80.1434	65.5336	0.0000	3.9813	2.0000
26.6000	80.2167	65.5817	0.0000	3.9780	2.0000
26.7000	80.2900	65.6297	0.0000	3.9748	2.0000
26.8000	80.3634	65.6778	0.0000	3.9715	2.0000
26.9000	80.4367	65.7259	0.0000	3.9677	2.0000
27.0000	80.5100	65.7740	0.0000	3.9628	2.0000
27.1000	80.5834	65.8221	0.0000	3.9579	2.0000
27.2000	80.5365	65.7768	0.0000	3.9530	2.0000
27.3000	80.3694	65.6383	0.0000	3.9482	2.0000
27.4000	80.2023	65.4998	0.0000	3.9433	2.0000
27.5000	80.0352	65.3613	0.0000	3.9384	2.0000
27.6000	79.8681	65.2228	0.0000	3.9336	2.0000
27.7000	79.7011	65.0843	0.0000	3.9287	2.0000
27.8000	79.5340	64.9457	0.0000	3.9238	2.0000
27.9000	79.3669	64.8072	0.0000	3.9190	2.0000
28.0000	79.1998	64.6687	0.0000	3.9141	2.0000
28.1000	78.9546	64.4514	0.0000	3.9092	2.0000
28.2000	78.6480	64.1721	0.0000	3.9043	2.0000
28.3000	78.3414	63.8928	0.0000	3.8995	2.0000
28.4000	78.0348	63.6136	0.0000	3.8946	2.0000
28.5000	77.7282	63.3343	0.0000	3.8897	2.0000
28.6000	77.4216	63.0550	0.0000	3.8849	2.0000
28.7000	77.1150	62.7758	0.0000	3.8800	2.0000
28.8000	76.8084	62.4965	0.0000	3.8751	2.0000
28.9000	76.5018	62.2172	0.0000	3.8702	2.0000
29.0000	76.4487	62.4058	0.0000	3.8654	2.0000
29.1000	76.4437	62.6836	0.0000	3.8605	2.0000
29.2000	76.4388	62.9613	0.0000	3.8556	2.0000
29.3000	76.4339	63.2390	0.0000	3.8508	2.0000
29.4000	76.4289	63.5167	0.0000	3.8459	2.0000
29.5000	76.4240	63.7945	0.0000	3.8410	2.0000
29.6000	76.4191	64.0722	0.0000	3.8361	2.0000
29.7000	76.4142	64.3499	0.0000	3.8313	2.0000
29.8000	76.4656	64.5763	0.0000	3.8264	2.0000
29.9000	76.5949	64.7318	0.0000	3.8215	2.0000
30.0000	76.7242	64.8872	0.0000	3.8167	2.0000
30.1000	76.8535	65.0427	0.0000	3.8116	2.0000
30.2000	76.9828	65.1981	0.0000	3.8060	2.0000
30.3000	77.1120	65.3536	0.0000	3.8005	2.0000
30.4000	77.2413	65.5091	0.0000	3.7949	2.0000
30.5000	77.3706	65.6645	0.0000	3.7894	2.0000
30.6000	77.4999	65.8200	0.0000	3.7838	2.0000
30.7000	77.7566	65.8788	0.0000	3.7783	2.0000
30.8000	77.8486	65.8617	0.0000	3.7727	2.0000
30.9000	77.9406	65.8447	0.0000	3.7671	2.0000
31.0000	78.0327	65.8276	0.0000	3.7616	2.0000
31.1000	78.1247	65.8105	0.0000	3.7560	2.0000
31.2000	78.2167	65.7934	0.0000	3.7505	2.0000
31.3000	78.3087	65.7763	0.0000	3.7449	2.0000
31.4000	78.4008	65.7592	0.0000	3.7394	2.0000
31.5000	78.4928	65.7421	0.0000	3.7338	2.0000
31.6000	78.5848	65.6792	0.0000	3.7283	2.0000
31.7000	78.6768	65.5832	0.0000	3.7227	2.0000
31.8000	78.7689	65.4872	0.0000	3.7171	2.0000
31.9000	78.8609	65.3912	0.0000	3.7116	2.0000
32.0000	78.9529	65.2952	0.0000	3.7060	2.0000
32.1000	79.0449	65.1992	0.0000	3.7005	2.0000
32.2000	79.1370	65.1032	0.0000	3.6949	2.0000
32.3000	79.2290	65.0072	0.0000	3.6894	2.0000
32.4000	79.3210	64.9303	0.0000	3.6838	2.0000
32.5000	79.4130	65.3119	0.0000	3.6783	2.0000
32.6000	79.5051	65.6934	0.0000	3.6727	2.0000
32.7000	79.5971	66.0749	0.0000	3.6672	2.0000
32.8000	79.6891	66.4565	0.0000	3.6616	2.0000
32.9000	79.7812	66.8380	0.0000	3.6560	2.0000
33.0000	79.8732	67.2195	0.0000	3.6505	2.0000
33.1000	79.9652	67.6011	0.0000	3.6449	2.0000
33.2000	80.0572	67.9826	0.0000	3.6394	2.0000
33.3000	80.1493	68.2627	0.0000	3.6468	2.0000
33.4000	80.2413	68.4631	0.0000	3.6628	2.0000
33.5000	80.3333	68.6634	0.0000	3.6788	2.0000
33.6000	80.4253	68.8638	0.0000	3.6949	2.0000
33.7000	80.5174	69.0641	0.0000	3.7109	2.0000
33.8000	80.6094	69.2645	0.0000	3.7269	2.0000
33.9000	80.7014	69.4648	0.0000	3.7429	2.0000
34.0000	80.7934	69.6652	0.0000	3.7590	2.0000
34.1000	80.8855	69.8655	0.0000	3.7750	2.0000
34.2000	80.9775	70.0053	0.0000	3.7910	2.0000
34.3000	80.9306	69.8688	0.0000	3.8071	2.0000
34.4000	80.8838	69.7323	0.0000	3.8231	2.0000
34.5000	80.8370	69.5959	0.0000	3.8391	2.0000
34.6000	80.7901	69.4594	0.0000	3.8551	2.0000
34.7000	80.7433	69.3230	0.0000	3.8712	2.0000
34.8000	80.6964	69.1865	0.0000	3.8872	2.0000
34.9000	80.6496	69.0500	0.0000	3.9032	2.0000
35.0000	80.6028	68.9136	0.0000	3.9193	2.0000
35.1000	80.5559	68.7771	0.0000	3.9353	2.0000
35.2000	80.4015	68.5733	0.0000	3.9513	2.0000
35.3000	80.2377	68.3636	0.0000	3.9673	2.0000
35.4000	80.0739	68.1540	0.0000	3.9834	2.0000
35.5000	79.9102	67.9443	0.0000	3.9994	2.0000
35.6000	79.7464	67.7346	0.0000	4.0154	2.0000
35.7000	79.5826	67.5250	0.0000	4.0315	2.0000
35.8000	79.4188	67.3153	0.0000	4.0475	2.0000
35.9000	79.2551	67.1056	0.0000	4.0635	2.0000
36.0000	79.0913	66.8960	0.0000	4.0795	2.0000
36.1000	78.9976	66.7630	0.0000	4.0956	2.0000
36.2000	78.9068	66.6333	0.0000	4.1116	2.0000
36.3000	78.8160	66.5036	0.0000	4.1276	2.0000
36.4000	78.7252	66.3739	0.0000	4.1437	2.0000
36.5000	78.6345	66.2442	0.0000	4.1597	2.0000
36.6000	78.5437	66.1145	0.0000	4.1757	2.0000
36.7000	78.4529	65.9848	0.0000	4.1917	2.0000
36.8000	78.3621	65.8551	0.0000	4.2078	2.0000
36.9000	78.4870	65.8896	0.0000	4.2238	2.0000
37.0000	78.7332	66.0165	0.0000	4.2398	2.0000
37.1000	78.9794	66.1434	0.0000	4.2559	2.0000
37.2000	79.2256	66.2703	0.0000	4.2719	2.0000
37.3000	79.4718	66.3972	0.0000	4.2879	2.0000
37.4000	79.7180	66.5241	0.0000	4.2986	2.0000
37.5000	79.9642	66.6510	0.0000	4.3013	2.0000
37.6000	80.2104	66.7780	0.0000	4.3041	2.0000
37.7000	80.4123	66.8906	0.0000	4.3068	2.0000
37.8000	80.3819	66.9283	0.0000	4.3095	2.0000
37.9000	80.3515	66.9660	0.0000	4.3122	2.0000
38.0000	80.3211	67.0036	0.0000	4.3149	2.0000
38.1000	80.2907	67.0413	0.0000	4.3176	2.0000
38.2000	80.2603	67.0790	0.0000	4.3204	2.0000
38.3000	80.2298	67.1167	0.0000	4.3231	2.0000
38.4000	80.1994	67.1544	0.0000	4.3258	2.0000
38.5000	80.1690	67.1921	0.0000	4.3285	2.0000
38.6000	80.1089	67.2069	0.0000	4.3312	2.0000
38.7000	79.9856	67.1733	0.0000	4.3339	2.0000
38.8000	79.8623	67.1397	0.0000	4.3367	2.0000
38.9000	79.7390	67.1061	0.0000	4.3394	2.0000
39.0000	79.6157	67.0725	0.0000	4.3421	2.0000
39.1000	79.4925	67.0389	0.0000	4.3448	2.0000
39.2000	79.3692	67.0052	0.0000	4.3475	2.0000
39.3000	79.2459	66.9716	0.0000	4.3502	2.0000
39.4000	79.1226	66.9380	0.0000	4.3530	2.0000
39.5000	79.0475	66.9918	0.0000	4.3557	2.0000
39.6000	78.9911	67.0796	0.0000	4.3584	2.0000
39.7000	78.9348	67.1673	0.0000	4.3611	2.0000
39.8000	78.8784	67.2551	0.0000	4.3638	2.0000
39.9000	78.8220	67.3429	0.0000	4.3666	2.0000
40.0000	78.7656	67.4307	0.0000	4.3693	2.0000
40.1000	78.7093	67.5184	0.0000	4.3720	2.0000
40.2000	78.6529	67.6062	0.0000	4.3747	2.0000
40.3000	78.6600	67.6169	0.0000	4.3774	2.0000
40.4000	78.7359	67.5442	0.0000	4.3801	2.0000
40.5000	78.8118	67.4715	0.0000	4.3829	2.0000
40.6000	78.8877	67.3988	0.0000	4.3856	2.0000
40.7000	78.9636	67.3261	0.0000	4.3883	2.0000
40.8000	79.0394	67.2534	0.0000	4.3910	2.0000
40.9000	79.1153	67.1806	0.0000	4.3937	2.0000
41.0000	79.1912	67.1079	0.0000	4.3964	2.0000
41.1000	79.3429	67.1579	0.0000	4.3992	2.0000
41.2000	79.5702	67.3305	0.0000	4.4019	2.0000
41.3000	79.7976	67.5031	0.0000	4.4046	2.0000
41.4000	80.0250	67.6758	0.0000	4.4073	2.0000
41.5000	80.2523	67.8484	0.0000	4.4087	2.0000
41.6000	80.4797	68.0210	0.0000	4.4002	2.0000
41.7000	80.7071	68.1936	0.0000	4.3918	2.0000
41.8000	80.9344	68.3663	0.0000	4.3833	2.0000
41.9000	81.1182	68.5048	0.0000	4.3748	2.0000
42.0000	81.0729	68.4641	0.0000	4.3663	2.0000
42.1000	81.0277	68.4235	0.0000	4.3579	2.0000
42.2000	80.9824	68.3828	0.0000	4.3494	2.0000
42.3000	80.9372	68.3422	0.0000	4.3409	2.0000
42.4000	80.8919	68.3015	0.0000	4.3325	2.0000
42.5000	80.8466	68.2609	0.0000	4.3240	2.0000
42.6000	80.8014	68.2202	0.0000	4.3155	2.0000
42.7000	80.7561	68.1796	0.0000	4.3071	2.0000
42.8000	80.6898	68.1319	0.0000	4.2986	2.0000
42.9000	80.5634	68.0643	0.0000	4.2901	2.0000
43.0000	80.4371	67.9967	0.0000	4.2817	2.0000
43.1000	80.3107	67.9292	0.0000	4.2732	2.0000
43.2000	80.1844	67.8616	0.0000	4.2647	2.0000
43.3000	80.0581	67.7940	0.0000	4.2562	2.0000
43.4000	79.9317	67.7264	0.0000	4.2478	2.0000
